Original File:	Z:\Freddy\hplc_vs_ucf_3x3_s1\20171106_0033_hplc_A2_prof.avi	Section:	0.1 +/-24V / 0.1 -/-24V all cycles (average)
Operator:	Zeta-View
Experiment:	20171106_0033
ZetaVIEW S/N:	274
Software:	ZetaView 8.04.02
Sample:	hplc_A2
Electrolyte:	
pH:	7.000000	entered
Conductivity:	15000.000000	sensed
Temperature:	24.890000	sensed
Viscosity:	0.902302
Date:	2017-11-06
Time:	18:42:46
General Remarks:	
Remarks:	
Sample Remarks0:	Sens85, Sh70, Framerate30, med
Sample Remarks1:	
Sample Remarks2:
Scattering Intensity:	3.231947
Detected Particles:	25
Particle Drift Checked:	2017-11-06 18:25:54
Particle Drift Check Result:	OK
Cell Checked:	2017-11-06 17:23:38
Cell Check Result:	Good
Type of Measurement:	Profile
Microscope Position:	0.100003
Number of Traces:	480	(at 0.100000 V both polarities all cycles)
Image Evaluation:
Minimum Brightness:	25
Minimum Area:	5
Maximum Area:	1000
Maximum Brightness:	255
Tracking Radius2:	100
Minimum Tracelength:	30
Begin New Traces:	1
PSD log Correction:	0
Camera:	FpSec 15 #Cycles 1 FRate 30.000000
Gain:	770.000000
Offset:	0.000000
Shutter:	70.000000
Brightness:	0.000000
Gamma:	10.000000
Auto Exposure:	0.000000
Camera Trigger Mode:	Camera Frequency
Camera Trigger Duration mus:	Shutter Duration
Camera Trigger Delay mus:	-100
Position:	0.100003
actual Microscope:	-133839	(Pos	0.100003)
actual Laser:	-206460
Position0 Microscope:	-141736
Position0 Laser:	-217037
Position1 Microscope:	-62768
Position1 Laser:	-111272
Cell Thickness (Microscope Steps):	-78968
Cell Thickness (Laser Steps):	-105765
SL1 (Stationary Layer 1):	0.149500
SL2 (Stationary Layer 2):	0.850500
Cell parameter:
Cell#:	CA0099-0197b
Micrometer per Pixel:	0.703000
Reference Electrode Distance:	5.150000
Voltage:	24.000000
Polarity:	1
Reference Voltage:	15.550715
Microscope Magnification:	x10
Laser Wavelength:	488.000000
ZP Factor:	12.835789	(Smoluchowski)
Average Field (abs) / V/cm:	2.967182
Results:
Mean Velocity (Pos 0.100003) / um/s:	-6.121997
Mobility / um/s/V/cm:	-1.827902
Mobility @ 25°C / um/s/V/cm:	-1.831565
Mobility FWHM / um/s/V/cm:	0.854223
Zeta Potential / mV:	-23.462565
Zeta Potential @ 25°C / mV:	-23.462565
ZP FWHM / mV:	10.964625
Histogram:
Electroph Mobility / um/s/V/cm	ZP / mV	Frequency
-9.956252	-127.620935	0.000000
-9.856189	-126.338312	0.000000
-9.756126	-125.055690	0.000000
-9.656064	-123.773067	0.000000
-9.556001	-122.490445	0.000000
-9.455938	-121.207822	0.000000
-9.355875	-119.925200	0.000000
-9.255812	-118.642578	0.000000
-9.155749	-117.359955	0.000000
-9.055687	-116.077333	0.000000
-8.955624	-114.794710	0.000000
-8.855561	-113.512088	0.000000
-8.755498	-112.229465	0.000000
-8.655435	-110.946843	0.000000
-8.555372	-109.664220	0.000000
-8.455310	-108.381598	0.000000
-8.355247	-107.098975	0.000000
-8.255184	-105.816353	0.000000
-8.155121	-104.533730	0.000000
-8.055058	-103.251108	0.000000
-7.954995	-101.968486	0.000000
-7.854933	-100.685863	0.000000
-7.754870	-99.403241	0.000000
-7.654807	-98.120618	0.000000
-7.554744	-96.837996	0.000000
-7.454681	-95.555373	0.000000
-7.354618	-94.272751	0.000000
-7.254556	-92.990128	0.000000
-7.154493	-91.707506	0.000000
-7.054430	-90.424883	0.000000
-6.954367	-89.142261	0.000000
-6.854304	-87.859638	0.000000
-6.754241	-86.577016	0.000000
-6.654179	-85.294394	0.000000
-6.554116	-84.011771	0.000000
-6.454053	-82.729149	0.000000
-6.353990	-81.446526	0.000000
-6.253927	-80.163904	0.000000
-6.153864	-78.881281	0.000000
-6.053802	-77.598659	0.000000
-5.953739	-76.316036	0.000000
-5.853676	-75.033414	0.000000
-5.753613	-73.750791	0.000000
-5.653550	-72.468169	0.000000
-5.553487	-71.185547	0.000000
-5.453425	-69.902924	0.000000
-5.353362	-68.620302	0.000000
-5.253299	-67.337679	0.000000
-5.153236	-66.055057	0.000000
-5.053173	-64.772434	0.000000
-4.953110	-63.489812	0.000000
-4.853048	-62.207189	1.000000
-4.752985	-60.924567	0.000000
-4.652922	-59.641944	1.000000
-4.552859	-58.359322	1.000000
-4.452796	-57.076699	0.000000
-4.352733	-55.794077	0.000000
-4.252671	-54.511455	0.000000
-4.152608	-53.228832	0.000000
-4.052545	-51.946210	0.000000
-3.952482	-50.663587	1.000000
-3.852419	-49.380965	0.000000
-3.752356	-48.098342	1.000000
-3.652294	-46.815720	2.000000
-3.552231	-45.533097	1.000000
-3.452168	-44.250475	4.000000
-3.352105	-42.967852	1.000000
-3.252042	-41.685230	1.000000
-3.151979	-40.402607	0.000000
-3.051916	-39.119985	2.000000
-2.951854	-37.837363	2.000000
-2.851791	-36.554740	2.000000
-2.751728	-35.272118	3.000000
-2.651665	-33.989495	1.000000
-2.551602	-32.706873	1.000000
-2.451539	-31.424250	1.000000
-2.351477	-30.141628	4.000000
-2.251414	-28.859005	6.000000
-2.151351	-27.576383	2.000000
-2.051288	-26.293760	5.000000
-1.951225	-25.011138	2.000000
-1.851162	-23.728516	4.000000
-1.751100	-22.445893	4.000000
-1.651037	-21.163271	3.000000
-1.550974	-19.880648	7.000000
-1.450911	-18.598026	3.000000
-1.350848	-17.315403	2.000000
-1.250785	-16.032781	8.000000
-1.150723	-14.750158	5.000000
-1.050660	-13.467536	3.000000
-0.950597	-12.184913	5.000000
-0.850534	-10.902291	0.000000
-0.750471	-9.619668	2.000000
-0.650408	-8.337046	2.000000
-0.550346	-7.054424	4.000000
-0.450283	-5.771801	3.000000
-0.350220	-4.489179	0.000000
-0.250157	-3.206556	0.000000
-0.150094	-1.923934	1.000000
-0.050031	-0.641311	0.000000
0.050031	0.641311	1.000000
0.150094	1.923934	2.000000
0.250157	3.206556	0.000000
0.350220	4.489179	1.000000
0.450283	5.771801	1.000000
0.550346	7.054424	0.000000
0.650408	8.337046	0.000000
0.750471	9.619668	0.000000
0.850534	10.902291	0.000000
0.950597	12.184913	0.000000
1.050660	13.467536	0.000000
1.150723	14.750158	0.000000
1.250785	16.032781	0.000000
1.350848	17.315403	0.000000
1.450911	18.598026	0.000000
1.550974	19.880648	0.000000
1.651037	21.163271	0.000000
1.751100	22.445893	0.000000
1.851162	23.728516	0.000000
1.951225	25.011138	0.000000
2.051288	26.293760	0.000000
2.151351	27.576383	0.000000
2.251414	28.859005	0.000000
2.351477	30.141628	0.000000
2.451539	31.424250	0.000000
2.551602	32.706873	0.000000
2.651665	33.989495	0.000000
2.751728	35.272118	0.000000
2.851791	36.554740	0.000000
2.951854	37.837363	0.000000
3.051916	39.119985	0.000000
3.151979	40.402607	0.000000
3.252042	41.685230	0.000000
3.352105	42.967852	0.000000
3.452168	44.250475	0.000000
3.552231	45.533097	0.000000
3.652294	46.815720	0.000000
3.752356	48.098342	0.000000
3.852419	49.380965	0.000000
3.952482	50.663587	0.000000
4.052545	51.946210	0.000000
4.152608	53.228832	0.000000
4.252671	54.511455	0.000000
4.352733	55.794077	0.000000
4.452796	57.076699	0.000000
4.552859	58.359322	0.000000
4.652922	59.641944	0.000000
4.752985	60.924567	0.000000
4.853048	62.207189	0.000000
4.953110	63.489812	0.000000
5.053173	64.772434	0.000000
5.153236	66.055057	0.000000
5.253299	67.337679	0.000000
5.353362	68.620302	0.000000
5.453425	69.902924	0.000000
5.553487	71.185547	0.000000
5.653550	72.468169	0.000000
5.753613	73.750791	0.000000
5.853676	75.033414	0.000000
5.953739	76.316036	0.000000
6.053802	77.598659	0.000000
6.153864	78.881281	0.000000
6.253927	80.163904	0.000000
6.353990	81.446526	0.000000
6.454053	82.729149	0.000000
6.554116	84.011771	0.000000
6.654179	85.294394	0.000000
6.754241	86.577016	0.000000
6.854304	87.859638	0.000000
6.954367	89.142261	0.000000
7.054430	90.424883	0.000000
7.154493	91.707506	0.000000
7.254556	92.990128	0.000000
7.354618	94.272751	0.000000
7.454681	95.555373	0.000000
7.554744	96.837996	0.000000
7.654807	98.120618	0.000000
7.754870	99.403241	0.000000
7.854933	100.685863	0.000000
7.954995	101.968486	0.000000
8.055058	103.251108	0.000000
8.155121	104.533730	0.000000
8.255184	105.816353	0.000000
8.355247	107.098975	0.000000
8.455310	108.381598	0.000000
8.555372	109.664220	0.000000
8.655435	110.946843	0.000000
8.755498	112.229465	0.000000
8.855561	113.512088	0.000000
8.955624	114.794710	0.000000
9.055687	116.077333	0.000000
9.155749	117.359955	0.000000
9.255812	118.642578	0.000000
9.355875	119.925200	0.000000
9.455938	121.207822	0.000000
9.556001	122.490445	0.000000
9.656064	123.773067	0.000000
9.756126	125.055690	0.000000
9.856189	126.338312	0.000000
9.956252	127.620935	0.000000
